wavelength,intensity,absorbance
400,100,0.5
410,120,0.48
420,150,0.45
430,200,0.40
440,250,0.35
450,280,0.32
460,300,0.30
470,280,0.32
480,250,0.35
490,200,0.40
500,150,0.45
510,120,0.48
520,100,0.5
530,80,0.52
540,70,0.54
